# This file has been produced by extranormal (v 1.0.1 - February 23, 2017)
# O. Roudenko - Synchrotron SOLEIL. Covered by GPL licence.
#Data from HDF File: /nfs/ruche-rock/rock-soleil/com-rock/2022/Projets/20220725_Gilles/op5_cell4_alone/op5_cell4_pos1_close/op5_cell4_pos1_close_0031/op5_cell4_pos1_close_0031_15254.nxs to op5_cell4_pos1_close_0031_15277.nxs
#Time at start=2022-07-28 15:40:54.530
#Time from start (seconds)=64.700051433
#Sample temperature (C)=nan
# Normalization -------------
# pivot spectrum: LNO_pristine_av1100_00001.txt
# E0=8332.88   Eshift=-0.200000132603
# E0_pivot = 8349.6
# pre-edge params: from E0_pivot-240.0 to E0_pivot-50.0
# pre-edge range: [8109.6, 8299.6]
# post-edge params: from E0_pivot+70.0 to E0_pivot+1155.0
# post-edge range: [8419.6, 9500.0]
# I jump at E0_pivot = 0.79834630547
# shifted energy	normalized	reference	ref.derivative	I0
        8060 0.0006693688     1.042672 -0.0004981306     14940.27
        8065  0.001325766     1.040182 -0.0004931201     14960.34
        8070  0.002019518     1.037743 -0.000458737     14984.53
        8075  0.002556193     1.035671 -0.0004530403     15007.75
        8080  0.002278771     1.033497 -0.0004374397     15029.99
        8085  0.001984136     1.031121 -0.0004548623     15048.52
        8090  0.000527741     1.028994 -0.0004549072     15070.91
        8095 0.0003521371     1.026574 -0.0004464548     15095.33
        8100 6.679234e-05     1.024399 -0.0004561066     15117.08
        8105  0.001212633     1.022192 -0.0004374728     15139.72
        8110 0.0008361954     1.019872 -0.0004278265     15159.38
        8115 0.0004558062     1.017824 -0.0004244045     15178.33
        8120 0.0002888271     1.015842 -0.0004074544     15198.27
        8125 0.0007837197     1.013704 -0.0004096379     15220.26
        8130  0.000402871     1.011723 -0.000416125     15242.53
        8135  0.001016348     1.009632 -0.0004051919     15263.57
        8140 -0.0006622686      1.00752 -0.000420586     15282.15
        8145 -0.001422666       1.0056 -0.0004168602     15304.67
        8150 -0.0005658521     1.003311 -0.0004172849     15321.88
        8155 -0.0005076768     1.001295 -0.0004308179      15344.9
        8160 0.0006777001    0.9991741 -0.0004171902     15363.86
        8165 0.0008592775    0.9969836 -0.0004289394     15392.13
        8170 0.0003389495    0.9949676 -0.0004298008      15409.6
        8175 0.0005159375    0.9927157 -0.000425683     15432.79
        8180 0.0007861997     0.990578 -0.0004306311     15452.67
        8185 0.0002693449    0.9884699 -0.0004159412     15472.19
        8190 0.0005980945     0.986355 -0.000413181     15495.05
        8195 -0.001403845    0.9843969 -0.0004113365     15517.04
        8200 -0.0006666863    0.9823144 -0.0004113177     15533.06
        8205 -0.001708343    0.9802432 -0.0004152659     15557.26
        8210 -0.0007400537    0.9781286 -0.000416782     15573.41
        8215  -0.00135841    0.9760916 -0.0004071058     15594.94
        8220 -0.0008021264    0.9739788 -0.0003990053     15618.21
        8225 -0.0007786833    0.9721011 -0.0004062356     15639.21
        8230 -0.0001836723    0.9701485 -0.0003915639     15660.15
        8235 -0.0008725878    0.9679669 -0.0003996953     15677.08
        8240 -0.0009280293    0.9661475 -0.0003929787     15698.94
        8245 7.228756e-05    0.9641072 -0.0003786547     15720.69
        8250 0.0003752614     0.962289 -0.0003746214      15738.9
        8255  0.001011886    0.9603938 -0.0003615945     15756.63
        8260 -4.06266e-05    0.9586551 -0.0003564732     15778.06
        8265 0.0002543016    0.9568753 -0.0003470053      15797.6
        8270 9.939499e-05    0.9551595 -0.0003454057     15819.21
        8275 2.857518e-05    0.9534537 -0.0003367773     15835.32
        8280 -0.0002244693     0.951747 -0.0003285876     15854.32
        8285  0.001053131    0.9501397 -0.000313398     15866.84
        8290 0.0008845789    0.9485877 -0.0002950259     15879.46
        8295  0.001328254    0.9471857 -0.0002807781      15890.5
        8300  0.002571688    0.9459149 -0.0002030979     15820.03
      8300.2  0.002664918     0.946042 0.0002550749      15809.6
      8300.4  0.002498586    0.9461019 0.0001362374     15799.31
      8300.6  0.002434728    0.9461041 -3.466251e-05      15791.6
      8300.8  0.002333669    0.9460238 -5.041263e-05     15786.06
        8301   0.00222552    0.9460142 -0.0002432749     15781.55
      8301.2   0.00212322    0.9460616 -0.0001288002     15778.67
      8301.4  0.002082811    0.9459094 -0.0003650376     15777.11
      8301.6  0.001958378    0.9459208 -0.0005324125     15775.98
      8301.8  0.001943084    0.9457222 -0.0005203752     15775.37
        8302  0.001941117    0.9456357   -0.0007486      15774.5
      8302.2  0.001945889    0.9454931 -0.0007349875     15774.51
      8302.4  0.002050993    0.9453219 -0.0007666624     15773.84
      8302.6   0.00200749    0.9451342 -0.0006808998     15771.74
      8302.8  0.002150372    0.9450223 -0.0004476624     15770.34
        8303   0.00217357    0.9449484 -0.0002407998     15766.63
      8303.2  0.002260561    0.9449638 9.613752e-05     15762.49
      8303.4  0.002313382    0.9449416 0.0001258125     15756.97
      8303.6  0.002350596    0.9450992   0.00012875     15749.34
      8303.8  0.002576438    0.9450491 0.0001765623     15739.67
        8304  0.002783666    0.9450668 -6.761251e-05      15727.4
      8304.2   0.00307399    0.9450828 -8.658759e-05     15711.66
      8304.4   0.00346352    0.9450452 -0.0002262627     15690.38
      8304.6  0.003848365    0.9449798 -0.0004999375     15662.44
      8304.8  0.004427624    0.9448858 -0.0005504377     15627.05
        8305  0.004993419    0.9446829 -0.0008541874     15578.98
      8305.2  0.005677795    0.9446048 -0.0006392499     15519.56
      8305.4  0.006314273    0.9442965 -0.0004421498     15448.31
      8305.6  0.006726587    0.9443744 -0.0001361121     15368.56
      8305.8  0.006888646    0.9443292 0.0004897625     15289.92
        8306  0.006749545    0.9444959 0.0004350502     15217.06
      8306.2  0.006329464    0.9446883 0.0007214875     15158.66
      8306.4  0.005712475    0.9447224 0.0007845874     15118.13
      8306.6  0.005001518    0.9449064    0.0006779     15098.53
      8306.8  0.004303336    0.9451236 0.0006433999     15101.25
        8307   0.00378261    0.9452306 0.0004387623     15124.13
      8307.2   0.00341317    0.9452371 0.0001200124     15160.33
      8307.4  0.003188831    0.9452574 4.205017e-05     15204.85
      8307.6   0.00303465    0.9452196 0.0002964627     15257.49
      8307.8  0.002898255    0.9452642 0.0005657625     15313.65
        8308  0.002739939    0.9454743 0.0005839875     15371.88
      8308.2   0.00260526      0.94571 0.0005629623     15431.94
      8308.4  0.002408353    0.9456868 0.0003310622     15493.66
      8308.6  0.002288204    0.9457146 -0.0001026126     15558.17
      8308.8  0.002348015    0.9457392 -0.0002275252     15621.91
        8309  0.002676318    0.9456279 -0.0004657252     15680.56
      8309.2  0.003159729    0.9455048 -0.000795525     15729.72
      8309.4  0.003704542     0.945342 -0.0008611999     15768.38
      8309.6  0.004357792    0.9451027 -0.0007105498     15794.79
      8309.8  0.004886221    0.9449389 -0.0004725747     15805.38
        8310  0.005321057    0.9449363 -5.789993e-05     15805.75
      8310.2  0.005509471     0.944964 4.972504e-05     15799.41
      8310.4  0.005573064    0.9450564  0.000110375     15792.04
      8310.6  0.005640002    0.9449787 0.0001467373     15786.46
      8310.8  0.005551418    0.9450246   -0.0002174     15783.83
        8311  0.005380377    0.9450813 -0.0002627251     15785.95
      8311.2  0.005374364    0.9448825 -0.0004484376      15792.8
      8311.4  0.005799042    0.9447685 -0.0005809249     15800.73
      8311.6  0.006380856    0.9446659 -0.0003695123        15803
      8311.8  0.006772014    0.9446166 -0.0001204373     15794.49
        8312  0.007127874    0.9445869 0.0001964627      15781.9
      8312.2  0.007438052    0.9446722 0.0004918126     15768.19
      8312.4  0.007482068    0.9448231 0.0006028749     15753.68
      8312.6  0.007444539    0.9450101 0.0004411623     15742.11
      8312.8  0.007395788    0.9450692 8.522482e-05     15733.46
        8313  0.007484697    0.9450251 -0.0001849502     15727.18
      8313.2  0.008008329    0.9448912 -0.0005070877     15717.13
      8313.4  0.008607367    0.9448621 -0.0007517625     15693.72
      8313.6  0.009391199    0.9446635  -0.00080805     15656.42
      8313.8   0.01033273    0.9444237 -0.0008221998      15599.5
        8314   0.01098557    0.9442448 -0.0004452872     15524.62
      8314.2   0.01145715    0.9442043 7.891285e-05     15440.99
      8314.4   0.01153232    0.9443073 0.0006115503      15354.1
      8314.6   0.01118068    0.9444868   0.00113005     15276.27
      8314.8    0.0106832     0.944734  0.001311188     15215.13
        8315  0.009794841    0.9451084   0.00158485     15172.97
      8315.2   0.00889141    0.9453562  0.001541075     15157.08
      8315.4   0.00801203    0.9457547  0.001290375     15165.82
      8315.6  0.007351652    0.9459669  0.001035875     15191.32
      8315.8  0.007015331    0.9461407 0.0005373748     15229.69
        8316  0.006866748    0.9461849  0.000258725     15273.11
      8316.2  0.006855575    0.9461846 0.0002995252     15317.35
      8316.4  0.006740386    0.9461739 0.0005421627     15360.42
      8316.6  0.006548188    0.9463803    0.0008726     15402.75
      8316.8  0.006335648    0.9466187 0.0008831999      15445.7
        8317  0.006240915    0.9468827 0.0006728748     15489.91
      8317.2  0.006193366    0.9468804 0.0004200372     15533.45
      8317.4  0.006155775    0.9469186 -3.586242e-05     15576.69
      8317.6  0.006148572    0.9469547 7.911248e-05     15620.13
      8317.8  0.006183018     0.946854 4.211242e-05     15662.84
        8318  0.006308552    0.9469437 -7.124976e-05     15702.83
      8318.2  0.006516105    0.9469523 0.0002978124     15738.19
      8318.4  0.006720678    0.9468977 0.0002204501     15768.67
      8318.6   0.00691171    0.9470922 0.0003165126      15794.4
      8318.8  0.007166836    0.9471201  0.000445775     15816.58
        8319  0.007291005    0.9472055 0.0004735625     15834.62
      8319.2  0.007454881    0.9472543 0.0005141251     15849.87
      8319.4  0.007516683    0.9474711 0.0006156375      15862.1
      8319.6  0.007682275    0.9475314 0.0006325375     15873.26
      8319.8  0.007702453     0.947698 0.0006048876      15882.6
        8320  0.007821674    0.9477604 0.0007370251      15891.3
      8320.2  0.007901727     0.947955 0.0008745625     15899.84
      8320.4  0.007979136     0.948121   0.00094055      15906.8
      8320.6  0.008082725    0.9483977 0.0009255626     15913.18
      8320.8  0.008043844    0.9485128  0.001009788     15918.49
        8321  0.008114301    0.9486955  0.001113488      15923.9
      8321.2  0.008109604    0.9489288  0.001273625     15928.56
      8321.4  0.008107712    0.9492884    0.0012674     15933.58
      8321.6   0.00820981    0.9495317  0.001237212     15938.67
      8321.8   0.00836389    0.9497094  0.001040975     15944.04
        8322  0.008499432    0.9499186 0.0009679877     15949.49
      8322.2  0.008559218    0.9501212    0.0012493     15953.79
      8322.4  0.008681032    0.9503061  0.001393838     15958.96
      8322.6  0.008772558    0.9507088  0.001440963     15964.79
      8322.8  0.009023626    0.9510337  0.001567762     15971.62
        8323  0.009259488     0.951274  0.001510637     15978.91
      8323.2  0.009399314    0.9515603  0.001489288     15986.19
      8323.4  0.009498118    0.9519173  0.001738813     15993.57
      8323.6  0.009581916    0.9522251  0.001911112     16001.15
      8323.8  0.009677162     0.952665  0.001899125      16008.5
        8324  0.009769239    0.9530892  0.002028412     16015.68
      8324.2  0.009995983    0.9534366    0.0019451     16022.07
      8324.4   0.01015844    0.9538478  0.002062388     16027.62
      8324.6   0.01024032    0.9542211    0.0021969     16032.27
      8324.8   0.01029812    0.9547391  0.002471725     16035.42
        8325   0.01035803    0.9551941    0.0025052     16038.21
      8325.2   0.01035705    0.9558252  0.002767663     16039.96
      8325.4    0.0106412    0.9562253  0.003050737     16042.49
      8325.6   0.01061512    0.9569532  0.002986013     16043.75
      8325.8   0.01076568    0.9576347  0.003432825     16045.48
        8326   0.01085235     0.958214  0.003613688     16046.37
      8326.2   0.01103699    0.9589715   0.00388265     16047.85
      8326.4   0.01125023    0.9598442   0.00431895     16049.28
      8326.6   0.01126938    0.9607409    0.0044777     16049.69
      8326.8   0.01161967    0.9616692  0.004660138     16052.23
        8327   0.01175195    0.9625537  0.004985575     16052.65
      8327.2   0.01190571    0.9635723    0.0050056     16053.45
      8327.4   0.01207655    0.9647293  0.005279425     16054.62
      8327.6   0.01244403    0.9656737  0.005650938     16056.19
      8327.8   0.01260859    0.9667772  0.005987188     16056.71
        8328   0.01285444     0.968093  0.006728276     16057.49
      8328.2   0.01307028    0.9695191  0.007512338     16058.55
      8328.4   0.01328006    0.9710563  0.008070588     16059.61
      8328.6   0.01342729    0.9727871  0.008633638     16060.18
      8328.8   0.01357653    0.9745495  0.009304163     16060.47
        8329   0.01386164     0.976426      0.01032     16061.43
      8329.2   0.01418351    0.9784996   0.01150366     16062.33
      8329.4   0.01447545    0.9810431    0.0129228     16063.62
      8329.6   0.01484429    0.9837524   0.01463154     16065.12
      8329.8   0.01518645    0.9867642   0.01657875     16066.22
        8330   0.01541952    0.9902048   0.01928888     16066.59
      8330.2   0.01577079    0.9943061   0.02266603     16067.91
      8330.4   0.01615203    0.9991835   0.02648269     16068.69
      8330.6   0.01646217     1.004897   0.03113434     16069.33
      8330.8   0.01690416     1.011391   0.03729802     16070.41
        8331   0.01734067     1.019214   0.04492414     16070.62
      8331.2   0.01789112     1.029022   0.05471785     16071.28
      8331.4   0.01859395     1.040836   0.06644168     16072.36
      8331.6   0.01934736     1.055165   0.07905701     16073.13
      8331.8   0.02026302     1.072367   0.09252076     16073.63
        8332   0.02123758     1.092268    0.1062506     16073.84
      8332.2   0.02243688     1.114853    0.1188302     16073.38
      8332.4   0.02392132     1.140166     0.130001     16074.08
      8332.6   0.02559313     1.167431    0.1385216     16074.09
      8332.8   0.02762977     1.196268    0.1443229     16074.21
        8333   0.02985016      1.22567    0.1476162     16074.21
      8333.2   0.03240184     1.255624    0.1481951     16074.58
      8333.4   0.03507273     1.285524    0.1461735     16074.24
      8333.6   0.03777427     1.314824    0.1430208     16073.55
      8333.8   0.04066888     1.342609    0.1389094     16073.46
        8334   0.04353328     1.370041     0.133596     16073.21
      8334.2   0.04624133     1.396652    0.1279584      16073.1
      8334.4   0.04873393     1.421701     0.120443     16073.64
      8334.6   0.05052949     1.444976    0.1116274      16072.5
      8334.8   0.05212737     1.466395    0.1027321      16072.7
        8335   0.05307453     1.485953   0.09416516     16072.37
      8335.2   0.05351662     1.503887   0.08627499      16072.5
      8335.4   0.05366922     1.520308   0.07789904      16073.2
      8335.6    0.0534795     1.535415    0.0700929     16073.47
      8335.8   0.05312582     1.548273   0.06261201     16073.31
        8336   0.05296747     1.559961   0.05604687     16074.13
      8336.2   0.05287302     1.570397   0.05151415     16074.74
      8336.4   0.05288526     1.580253   0.04771721     16075.95
      8336.6      0.05296     1.589484   0.04467354     16076.28
      8336.8   0.05339782     1.598135    0.0422733     16077.45
        8337   0.05399766     1.606136    0.0409239     16078.71
      8337.2   0.05480702     1.614071    0.0408594     16079.53
      8337.4   0.05580249     1.622223    0.0420913      16080.5
      8337.6   0.05702006     1.630823   0.04449653      16081.9
      8337.8   0.05842176     1.639809   0.04747319     16083.72
        8338   0.05991793     1.649668   0.05107104     16084.85
      8338.2   0.06159144     1.660202   0.05476768     16086.22
      8338.4   0.06333503     1.671679   0.05820664     16087.39
      8338.6   0.06535945     1.683623   0.06110945     16088.24
      8338.8   0.06764382     1.696234   0.06301524     16089.67
        8339   0.06998757     1.709089    0.0645345     16090.32
      8339.2   0.07260142     1.722092   0.06509334     16091.43
      8339.4   0.07538079     1.735251   0.06467509     16092.03
      8339.6   0.07834231     1.748308   0.06338546     16092.02
      8339.8   0.08175238     1.760829   0.06153301     16093.32
        8340   0.08526507       1.7728   0.05979465     16093.73
      8340.2   0.08904798     1.784477    0.0584844     16093.75
      8340.4   0.09340686     1.796144   0.05792212     16094.75
      8340.6   0.09826543     1.807617   0.05689155     16094.71
      8340.8    0.1036097     1.819138   0.05645859     16095.58
        8341    0.1092362     1.829991   0.05699658     16095.79
      8341.2    0.1156065     1.841311   0.05850151     16096.37
      8341.4    0.1228397     1.853214   0.06169818     16097.36
      8341.6    0.1308365     1.865939   0.06528489     16097.56
      8341.8    0.1399299     1.879349   0.06900103     16097.74
        8342    0.1500582     1.893539   0.07236364     16098.97
      8342.2    0.1607991     1.908415   0.07743355     16099.68
      8342.4    0.1726111      1.92383   0.08258599     16100.43
      8342.6    0.1860693     1.941296   0.08820344     16101.01
      8342.8    0.2003729     1.959608   0.09413854     16101.51
        8343    0.2157502     1.978978    0.0983682     16102.92
      8343.2    0.2317835     1.999141    0.1026008     16102.94
      8343.4    0.2489513     2.019991    0.1062506     16104.46
      8343.6    0.2665639     2.041688     0.110125     16104.97
      8343.8    0.2847743     2.063978     0.113906     16105.53
        8344    0.3034391     2.087241    0.1166767     16105.42
      8344.2     0.322556     2.111115    0.1200252     16105.64
      8344.4    0.3421596      2.13503    0.1225053     16105.79
      8344.6    0.3623615     2.159998    0.1248283     16105.51
      8344.8    0.3828503     2.185245    0.1269764     16106.25
        8345    0.4035475     2.210978    0.1285835     16106.54
      8345.2    0.4244804     2.236611    0.1305868     16106.35
      8345.4    0.4461224     2.262865    0.1325907     16107.66
      8345.6    0.4683887     2.289714    0.1339947     16108.67
      8345.8    0.4912722     2.317051    0.1340933     16109.99
        8346     0.514078     2.343807    0.1334241     16110.79
      8346.2    0.5369147      2.37014    0.1322253     16111.99
      8346.4     0.559921     2.396454    0.1313088     16113.59
      8346.6    0.5838872     2.422831    0.1298831     16114.71
      8346.8    0.6082493     2.448854    0.1264218     16115.64
        8347    0.6330398     2.474046     0.121229      16116.2
      8347.2    0.6571514     2.497591    0.1147192     16116.61
      8347.4     0.681552     2.519814    0.1090355     16116.75
      8347.6     0.706386     2.540629      0.10241     16118.06
      8347.8     0.732393     2.561275   0.09557049     16118.76
        8348    0.7582394     2.579519   0.08673712     16119.31
      8348.2    0.7841535      2.59627   0.07721502     16119.46
      8348.4    0.8098749     2.610019   0.06776238     16120.13
      8348.6    0.8350602     2.623047   0.05860889     16119.81
